Multi Scans Modified Normalised

Labels	T2_2percent_diffuseReflectance-24900 Normalised	T2_99percent_diffuseReflectance-24900 Normalised	
Type	Emission Scan	Emission Scan	
Comment			
Start	1399.95000	1450.05000	
Stop	1700.25000	1649.55000	
Step	1.050	1.050	
Fixed/Offset	850.00	850.00	
Xaxis	Wavelength	Wavelength	
Yaxis	Counts	Counts	
Scan Corr. by File	False	False	
Corr. by Ref. Det.	False	False	
Fixed/Offset Corr. by File	False	False	
Repeats	1	1	
Dwell Time	0.20	0.20	
Lamp	uF900	uF900	
Temp	0.00	0.00	
Scan Polariser	None	None	
Scan Slit	0.00	0.00	
Fixed/Offset Polariser	None	None	
Fixed/Offset Slit	0.00	0.00	
Detector	NIR PMT	NIR PMT	

1399.95000	-3.956E-4	 	
1401.000	-2.191E-3	 	
1402.05000	5.477E-4	 	
1403.1000	-2.587E-4	 	
1404.15000	-5.204E-3	 	
1405.2000	-3.317E-3	 	
1406.25000	-4.747E-3	 	
1407.3000	2.769E-3	 	
1408.35000	-3.241E-3	 	
1409.4000	-4.260E-4	 	
1410.45000	8.657E-3	 	
1411.5000	7.182E-3	 	
1412.55000	8.429E-3	 	
1413.6000	7.288E-3	 	
1414.65000	5.599E-3	 	
1415.7000	8.962E-3	 	
1416.75000	6.390E-3	 	
1417.8000	5.401E-3	 	
1418.85000	8.064E-3	 	
1419.9000	5.128E-3	 	
1420.95000	6.162E-3	 	
1422.000	2.206E-3	 	
1423.05000	1.293E-3	 	
1424.1000	4.869E-4	 	
1425.15000	-1.765E-3	 	
1426.2000	1.202E-3	 	
1427.25000	3.576E-3	 	
1428.3000	3.956E-4	 	
1429.35000	8.520E-4	 	
1430.4000	1.430E-3	 	
1431.45000	1.887E-3	 	
1432.5000	1.963E-3	 	
1433.55000	3.210E-3	 	
1434.6000	5.051E-3	 	
1435.65000	3.606E-3	 	
1436.7000	7.440E-3	 	
1437.75000	1.085E-2	 	
1438.8000	1.064E-2	 	
1439.85000	2.495E-3	 	
1440.9000	2.678E-3	 	
1441.95000	3.652E-3	 	
1443.000	1.056E-2	 	
1444.05000	5.660E-3	 	
1445.1000	1.500E-2	 	
1446.15000	7.577E-3	 	
1447.2000	1.337E-2	 	
1448.25000	9.175E-3	 	
1449.3000	7.166E-3	 	
1450.35000	8.444E-3	2.011E-2	
1451.4000	1.397E-2	1.781E-2	
1452.45000	8.414E-3	1.695E-2	
1453.5000	7.425E-3	2.378E-2	
1454.55000	1.421E-2	2.371E-2	
1455.6000	1.270E-2	2.889E-2	
1456.65000	1.683E-2	2.501E-2	
1457.7000	2.002E-2	2.484E-2	
1458.75000	2.389E-2	3.288E-2	
1459.8000	3.087E-2	3.040E-2	
1460.85000	3.434E-2	4.133E-2	
1461.9000	3.458E-2	4.165E-2	
1462.95000	3.825E-2	4.810E-2	
1464.000	5.056E-2	4.736E-2	
1465.05000	4.336E-2	4.499E-2	
1466.1000	3.889E-2	4.540E-2	
1467.15000	4.803E-2	5.012E-2	
1468.2000	5.178E-2	5.330E-2	
1469.25000	5.141E-2	5.894E-2	
1470.3000	6.225E-2	6.170E-2	
1471.35000	6.593E-2	6.576E-2	
1472.4000	7.090E-2	6.769E-2	
1473.45000	7.411E-2	7.189E-2	
1474.5000	6.708E-2	7.367E-2	
1475.55000	7.302E-2	7.763E-2	
1476.6000	7.970E-2	8.147E-2	
1477.65000	8.520E-2	8.797E-2	
1478.7000	9.163E-2	8.771E-2	
1479.75000	9.328E-2	9.549E-2	
1480.8000	1.008E-1	9.602E-2	
1481.85000	9.726E-2	1.049E-1	
1482.9000	1.107E-1	1.090E-1	
1483.95000	1.115E-1	1.130E-1	
1485.000	1.158E-1	1.145E-1	
1486.05000	1.169E-1	1.215E-1	
1487.1000	1.246E-1	1.230E-1	
1488.15000	1.190E-1	1.265E-1	
1489.2000	1.212E-1	1.218E-1	
1490.25000	1.203E-1	1.252E-1	
1491.3000	1.172E-1	1.215E-1	
1492.35000	1.162E-1	1.223E-1	
1493.4000	1.235E-1	1.223E-1	
1494.45000	1.177E-1	1.210E-1	
1495.5000	1.223E-1	1.180E-1	
1496.55000	1.226E-1	1.211E-1	
1497.6000	1.207E-1	1.173E-1	
1498.65000	1.206E-1	1.165E-1	
1499.7000	1.223E-1	1.166E-1	
1500.75000	1.182E-1	1.172E-1	
1501.8000	1.202E-1	1.138E-1	
1502.85000	1.134E-1	1.122E-1	
1503.9000	1.109E-1	1.106E-1	
1504.95000	1.075E-1	1.099E-1	
1506.000	1.063E-1	1.098E-1	
1507.05000	1.072E-1	1.083E-1	
1508.1000	1.044E-1	1.082E-1	
1509.15000	1.075E-1	1.080E-1	
1510.2000	1.142E-1	1.092E-1	
1511.25000	1.081E-1	1.152E-1	
1512.3000	1.080E-1	1.137E-1	
1513.35000	1.144E-1	1.141E-1	
1514.4000	1.179E-1	1.159E-1	
1515.45000	1.153E-1	1.239E-1	
1516.5000	1.240E-1	1.308E-1	
1517.55000	1.380E-1	1.377E-1	
1518.6000	1.384E-1	1.463E-1	
1519.65000	1.545E-1	1.541E-1	
1520.7000	1.654E-1	1.661E-1	
1521.75000	1.777E-1	1.800E-1	
1522.8000	2.004E-1	2.004E-1	
1523.85000	2.203E-1	2.207E-1	
1524.9000	2.488E-1	2.439E-1	
1525.95000	2.751E-1	2.675E-1	
1527.000	3.024E-1	2.971E-1	
1528.05000	3.445E-1	3.303E-1	
1529.1000	3.869E-1	3.697E-1	
1530.15000	4.226E-1	4.132E-1	
1531.2000	4.808E-1	4.650E-1	
1532.25000	5.568E-1	5.327E-1	
1533.3000	6.863E-1	6.281E-1	
1534.35000	8.243E-1	7.732E-1	
1535.4000	9.533E-1	9.208E-1	
1536.45000	1.000E+0	1.000E+0	
1537.5000	9.705E-1	9.869E-1	
1538.55000	8.870E-1	9.187E-1	
1539.6000	8.277E-1	8.360E-1	
1540.65000	8.212E-1	8.046E-1	
1541.7000	8.379E-1	8.270E-1	
1542.75000	8.524E-1	8.543E-1	
1543.8000	8.492E-1	8.476E-1	
1544.85000	8.048E-1	8.225E-1	
1545.9000	7.276E-1	7.590E-1	
1546.95000	6.576E-1	6.853E-1	
1548.000	5.894E-1	6.003E-1	
1549.05000	5.376E-1	5.464E-1	
1550.1000	4.776E-1	4.943E-1	
1551.15000	4.392E-1	4.565E-1	
1552.2000	3.948E-1	4.165E-1	
1553.25000	3.668E-1	3.815E-1	
1554.3000	3.397E-1	3.585E-1	
1555.35000	3.170E-1	3.267E-1	
1556.4000	3.067E-1	3.123E-1	
1557.45000	2.916E-1	2.973E-1	
1558.5000	2.667E-1	2.873E-1	
1559.55000	2.697E-1	2.786E-1	
1560.6000	2.581E-1	2.727E-1	
1561.65000	2.577E-1	2.661E-1	
1562.7000	2.654E-1	2.601E-1	
1563.75000	2.593E-1	2.616E-1	
1564.8000	2.556E-1	2.569E-1	
1565.85000	2.491E-1	2.531E-1	
1566.9000	2.417E-1	2.523E-1	
1567.95000	2.375E-1	2.451E-1	
1569.000	2.264E-1	2.285E-1	
1570.05000	2.156E-1	2.208E-1	
1571.1000	1.962E-1	2.063E-1	
1572.15000	1.861E-1	1.917E-1	
1573.2000	1.634E-1	1.745E-1	
1574.25000	1.441E-1	1.544E-1	
1575.3000	1.163E-1	1.274E-1	
1576.35000	1.050E-1	1.100E-1	
1577.4000	8.510E-2	9.317E-2	
1578.45000	8.199E-2	8.419E-2	
1579.5000	6.929E-2	7.560E-2	
1580.55000	6.523E-2	7.442E-2	
1581.6000	6.228E-2	6.565E-2	
1582.65000	5.675E-2	6.383E-2	
1583.7000	5.420E-2	5.990E-2	
1584.75000	5.771E-2	5.592E-2	
1585.8000	5.354E-2	5.753E-2	
1586.85000	5.131E-2	5.384E-2	
1587.9000	5.172E-2	5.083E-2	
1588.95000	4.703E-2	5.157E-2	
1590.00	5.442E-2	5.406E-2	
1591.05000	4.881E-2	5.045E-2	
1592.1000	5.435E-2	5.015E-2	
1593.15000	4.727E-2	4.724E-2	
1594.2000	4.816E-2	4.759E-2	
1595.25000	4.072E-2	4.713E-2	
1596.3000	3.976E-2	4.896E-2	
1597.35000	4.371E-2	4.954E-2	
1598.4000	4.517E-2	4.585E-2	
1599.45000	4.321E-2	4.901E-2	
1600.5000	4.370E-2	4.601E-2	
1601.55000	3.980E-2	4.998E-2	
1602.6000	4.402E-2	4.596E-2	
1603.65000	5.194E-2	5.311E-2	
1604.7000	5.191E-2	4.976E-2	
1605.75000	4.542E-2	4.994E-2	
1606.8000	4.741E-2	4.625E-2	
1607.85000	4.327E-2	4.840E-2	
1608.9000	4.469E-2	4.734E-2	
1609.95000	4.262E-2	4.824E-2	
1611.000	3.964E-2	4.680E-2	
1612.05000	4.371E-2	4.653E-2	
1613.1000	4.169E-2	4.672E-2	
1614.15000	4.117E-2	4.628E-2	
1615.2000	4.067E-2	4.443E-2	
1616.25000	4.134E-2	3.971E-2	
1617.3000	4.482E-2	4.151E-2	
1618.35000	4.318E-2	3.952E-2	
1619.4000	3.807E-2	4.016E-2	
1620.45000	3.504E-2	3.803E-2	
1621.5000	3.649E-2	3.549E-2	
1622.55000	3.538E-2	3.448E-2	
1623.6000	2.652E-2	3.462E-2	
1624.65000	2.832E-2	2.958E-2	
1625.7000	3.087E-2	2.897E-2	
1626.75000	2.498E-2	2.816E-2	
1627.8000	2.871E-2	2.475E-2	
1628.85000	2.574E-2	2.419E-2	
1629.9000	2.661E-2	2.076E-2	
1630.95000	2.291E-2	2.309E-2	
1632.000	1.687E-2	1.562E-2	
1633.05000	1.648E-2	1.533E-2	
1634.1000	1.337E-2	1.538E-2	
1635.15000	1.488E-2	1.495E-2	
1636.2000	1.047E-2	1.700E-2	
1637.25000	1.378E-2	1.237E-2	
1638.3000	1.261E-2	1.298E-2	
1639.35000	1.006E-2	1.271E-2	
1640.4000	8.399E-3	1.324E-2	
1641.45000	7.090E-3	8.287E-3	
1642.5000	9.129E-3	8.946E-3	
1643.55000	2.815E-3	1.180E-2	
1644.6000	4.747E-3	8.017E-3	
1645.65000	6.543E-3	9.630E-3	
1646.7000	2.039E-3	7.240E-3	
1647.75000	-4.260E-4	9.892E-3	
1648.8000	1.249E-2	6.589E-3	
1649.85000	7.151E-3	 	
1650.9000	3.013E-3	 	
1651.95000	7.227E-3	 	
1653.000	8.977E-3	 	
1654.05000	5.021E-3	 	
1655.1000	5.112E-3	 	
1656.15000	1.021E-2	 	
1657.2000	8.505E-3	 	
1658.25000	-1.522E-4	 	
1659.3000	4.108E-3	 	
1660.35000	6.101E-3	 	
1661.4000	3.606E-3	 	
1662.45000	5.858E-3	 	
1663.5000	6.801E-3	 	
1664.55000	6.740E-3	 	
1665.6000	8.201E-3	 	
1666.65000	8.475E-3	 	
1667.7000	3.271E-3	 	
1668.75000	3.302E-3	 	
1669.8000	4.625E-3	 	
1670.85000	8.520E-4	 	
1671.9000	-4.352E-3	 	
1672.95000	4.443E-3	 	
1674.000	4.412E-4	 	
1675.05000	1.902E-3	 	
1676.1000	-3.804E-4	 	
1677.15000	-6.603E-3	 	
1678.2000	-6.938E-3	 	
1679.25000	4.017E-3	 	
1680.3000	2.510E-3	 	
1681.35000	4.458E-3	 	
1682.4000	1.993E-3	 	
1683.45000	1.613E-3	 	
1684.5000	-9.129E-4	 	
1685.55000	2.069E-3	 	
1686.6000	-3.621E-3	 	
1687.65000	-5.219E-3	 	
1688.7000	8.520E-4	 	
1689.75000	9.890E-4	 	
1690.8000	-3.454E-3	 	
1691.85000	-2.252E-3	 	
1692.9000	-8.368E-4	 	
1693.95000	2.328E-3	 	
1695.000	-2.800E-3	 	
1696.05000	8.368E-4	 	
1697.1000	-3.667E-3	 	
1698.15000	1.369E-3	 	
1699.2000	-4.473E-3	 	
1700.25000	-6.086E-5	 	
